Y,X,F3,F4,P7,FC6,F7,F8,T7,P8,FC5,AF4,T8,02,01,AF3,state0,0,0,0,0,0,0,0,0,0,0,0,0,0,0,0,00,0,0,0,0,0,0,0,0,0,0,0,0,0,0,0,0-37,147,-7063,4819,-826,-7582,-4773,2270,-328,3117,5455,-4411,-6177,1919,1236,1631,0-37,147,-7063,4819,-826,-7582,-4773,2270,-328,3117,5455,-4411,-6177,1919,1236,1631,0-61,133,-7328,-4353,3961,2876,5115,-2369,2119,-5177,2908,773,1670,1895,7089,-3597,0-61,133,-7328,-4353,3961,2876,5115,-2369,2119,-5177,2908,773,1670,1895,7089,-3597,0112,23,2874,-1210,7232,-4647,5941,2502,7021,-1972,4210,-3562,-7523,-319,7373,-5129,0112,23,2874,-1210,7232,-4647,5941,2502,7021,-1972,4210,-3562,-7523,-319,7373,-5129,07,-21,5157,-6662,-1966,-8177,-7533,1465,-3531,-7939,-3558,976,-4836,-70,4971,-4855,07,-21,5157,-6662,-1966,-8177,-7533,1465,-3531,-7939,-3558,976,-4836,-70,4971,-4855,089,-37,-3339,3751,42,-7923,2257,-7593,-5972,-3873,2414,1343,4871,3678,5158,7553,089,-37,-3339,3751,42,-7923,2257,-7593,-5972,-3873,2414,1343,4871,3678,5158,7553,011,70,-1616,8110,3401,-5425,-1408,-1448,7154,-4071,-6320,-1506,-311,-1600,5784,1542,011,70,-1616,8110,3401,-5425,-1408,-1448,7154,-4071,-6320,-1506,-311,-1600,5784,1542,0-45,70,-5164,3216,449,3954,6687,5438,-1178,-4595,-3608,-7639,5203,265,3693,6630,0-45,70,-5164,3216,449,3954,6687,5438,-1178,-4595,-3608,-7639,5203,265,3693,6630,0146,-51,3624,4390,-8082,6957,3989,3319,2341,338,258,8167,5964,2654,-7136,-8045,0146,-51,3624,4390,-8082,6957,3989,3319,2341,338,258,8167,5964,2654,-7136,-8045,0102,13,4443,-1962,-1878,41,-8168,-6785,4094,8094,-197,-718,-5668,3638,-4282,4537,0102,13,4443,-1962,-1878,41,-8168,-6785,4094,8094,-197,-718,-5668,3638,-4282,4537,0-91,-18,-6739,-772,-2903,3540,2572,-7081,-2254,-1449,-6550,-2610,-1719,-4114,7741,-807,0-91,-18,-6739,-772,-2903,3540,2572,-7081,-2254,-1449,-6550,-2610,-1719,-4114,7741,-807,075,79,-4555,5963,1765,-1144,487,-4923,6121,-2422,2399,-3353,5993,-2350,-5136,-5152,075,79,-4555,5963,1765,-1144,487,-4923,6121,-2422,2399,-3353,5993,-2350,-5136,-5152,047,90,7856,6938,-1835,-3790,478,5984,6582,902,-1770,3539,2928,221,-7046,-216,047,90,7856,6938,-1835,-3790,478,5984,6582,902,-1770,3539,2928,221,-7046,-216,063,73,-2471,-7723,6334,1211,4723,2739,5058,3261,6904,-2214,3657,-2474,-7371,3951,063,73,-2471,-7723,6334,1211,4723,2739,5058,3261,6904,-2214,3657,-2474,-7371,3951,049,32,2851,-4096,2336,-5207,3089,6147,-7905,-4154,-1246,-5674,-2484,3309,-5960,2740,049,32,2851,-4096,2336,-5207,3089,6147,-7905,-4154,-1246,-5674,-2484,3309,-5960,2740,0145,92,-698,-4633,4056,-6786,69,-3536,3658,-5154,8001,3373,-891,3197,-7576,2884,0145,92,-698,-4633,4056,-6786,69,-3536,3658,-5154,8001,3373,-891,3197,-7576,2884,0-30,119,3464,4248,7768,-823,-7444,2208,4429,2163,1700,-6458,-2427,859,2287,5245,0-30,119,3464,4248,7768,-823,-7444,2208,4429,2163,1700,-6458,-2427,859,2287,5245,097,-11,6266,7489,794,943,2870,6201,-1027,-6895,-1813,-7809,-3207,5708,2407,-3872,097,-11,6266,7489,794,943,2870,6201,-1027,-6895,-1813,-7809,-3207,5708,2407,-3872,0113,87,1049,-712,-7303,-4509,-7243,6565,7665,-188,5566,2092,-425,-795,-2222,-1399,0113,87,1049,-712,-7303,-4509,-7243,6565,7665,-188,5566,2092,-425,-795,-2222,-1399,0-12,89,5569,5252,-2624,1041,-141,227,2445,-2419,3051,-6114,-245,4288,1528,4465,0-12,89,5569,5252,-2624,1041,-141,227,2445,-2419,3051,-6114,-245,4288,1528,4465,0-87,-99,4060,-6368,-7840,5552,4535,-3641,-2715,-7434,-3585,3796,5837,7513,2042,-3460,0-87,-99,4060,-6368,-7840,5552,4535,-3641,-2715,-7434,-3585,3796,5837,7513,2042,-3460,0-44,-93,6540,4085,-7516,6275,4045,-3519,-6739,-6468,493,4569,-1322,-3212,-4219,-6926,0-44,-93,6540,4085,-7516,6275,4045,-3519,-6739,-6468,493,4569,-1322,-3212,-4219,-6926,0-9,-75,7981,2501,-2473,3957,3886,-3563,4880,-2454,-1456,-1278,-717,-2489,6288,4628,0-9,-75,7981,2501,-2473,3957,3886,-3563,4880,-2454,-1456,-1278,-717,-2489,6288,4628,0-97,-92,-7484,-7942,-4635,786,4153,17,7782,-2735,3641,-6574,-4654,-3100,5191,2334,0-97,-92,-7484,-7942,-4635,786,4153,17,7782,-2735,3641,-6574,-4654,-3100,5191,2334,0130,-3,5651,252,-7171,7250,3209,-6799,7572,-3914,-4090,4481,293,3423,-4344,-767,0130,-3,5651,252,-7171,7250,3209,-6799,7572,-3914,-4090,4481,293,3423,-4344,-767,023,4,-6531,6467,-2597,862,1475,-5171,565,6925,3217,-6060,-2559,-172,-7864,1401,023,4,-6531,6467,-2597,862,1475,-5171,565,6925,3217,-6060,-2559,-172,-7864,1401,0-19,51,1639,-1723,-8175,-2590,-5252,-4284,-484,1025,1211,-2854,-4387,-2939,2733,4089,0-19,51,1639,-1723,-8175,-2590,-5252,-4284,-484,1025,1211,-2854,-4387,-2939,2733,4089,0-73,44,7805,1004,3115,-1546,411,-561,-378,410,7722,74,-2258,-1289,-7910,-143,0-73,44,7805,1004,3115,-1546,411,-561,-378,410,7722,74,-2258,-1289,-7910,-143,0-11,10,-3896,4838,-495,-3227,856,3379,5307,7534,-2095,-2219,-1632,456,6181,-7650,0-11,10,-3896,4838,-495,-3227,856,3379,5307,7534,-2095,-2219,-1632,456,6181,-7650,0-37,63,-4655,-6789,-7899,2620,-6120,-1786,2198,-4183,-6482,-2168,-677,1937,347,6280,0-37,63,-4655,-6789,-7899,2620,-6120,-1786,2198,-4183,-6482,-2168,-677,1937,347,6280,0143,56,3986,2605,730,2586,5379,4067,4220,-2356,160,-2407,-3203,514,3751,-4844,0143,56,3986,2605,730,2586,5379,4067,4220,-2356,160,-2407,-3203,514,3751,-4844,066,84,3593,-3075,4778,-7749,-3947,-6946,5192,5337,6634,-7842,-7592,-5804,-976,-8029,066,84,3593,-3075,4778,-7749,-3947,-6946,5192,5337,6634,-7842,-7592,-5804,-976,-8029,048,-64,2269,-883,-5142,-5634,-7737,-1789,2701,4109,-1342,378,6602,4164,1141,7087,048,-64,2269,-883,-5142,-5634,-7737,-1789,2701,4109,-1342,378,6602,4164,1141,7087,084,-25,4867,8138,4765,-643,187,616,-4527,-7560,4025,-2150,424,7595,1302,-6811,084,-25,4867,8138,4765,-643,187,616,-4527,-7560,4025,-2150,424,7595,1302,-6811,0-18,-103,4215,-2774,-3689,4726,-3736,-6465,-6378,-5818,1089,-5382,1190,-6459,-4447,-1201,0-18,-103,4215,-2774,-3689,4726,-3736,-6465,-6378,-5818,1089,-5382,1190,-6459,-4447,-1201,036,-62,2515,-4232,2035,-2175,-301,7785,6076,3624,-7264,1431,282,272,-4469,-4210,036,-62,2515,-4232,2035,-2175,-301,7785,6076,3624,-7264,1431,282,272,-4469,-4210,0-65,-54,8025,630,-6223,7313,-7299,2489,1643,-2386,-160,7125,-7294,7747,-4606,-5802,0-65,-54,8025,630,-6223,7313,-7299,2489,1643,-2386,-160,7125,-7294,7747,-4606,-5802,0-103,54,-4103,989,3477,3299,7410,4118,2604,-5475,3821,-8100,-2731,408,-632,7814,0-103,54,-4103,989,3477,3299,7410,4118,2604,-5475,3821,-8100,-2731,408,-632,7814,075,30,1845,6077,-5156,-3368,-677,306,-4250,-5122,-2620,4499,3624,-7444,6963,-6065,075,30,1845,6077,-5156,-3368,-677,306,-4250,-5122,-2620,4499,3624,-7444,6963,-6065,0103,39,-4545,8021,-7630,-5292,1675,1225,7909,6376,-7161,-1528,5177,7428,6770,5312,0103,39,-4545,8021,-7630,-5292,1675,1225,7909,6376,-7161,-1528,5177,7428,6770,5312,0-21,-1,-3740,1947,3099,-494,5979,-2048,789,-2513,-6867,-2502,-4047,1965,-5686,1514,0-21,-1,-3740,1947,3099,-494,5979,-2048,789,-2513,-6867,-2502,-4047,1965,-5686,1514,0-62,125,6876,3004,6201,-2042,2134,-5486,4268,2303,4161,-1199,-5406,-16,45,-6836,0-62,125,6876,3004,6201,-2042,2134,-5486,4268,2303,4161,-1199,-5406,-16,45,-6836,0134,-37,-956,-1582,5562,4178,-5066,4623,6866,923,-6364,5338,1840,-2151,-2263,6582,0134,-37,-956,-1582,5562,4178,-5066,4623,6866,923,-6364,5338,1840,-2151,-2263,6582,0-90,119,-15,8025,1050,660,-5990,-2272,-6760,1440,3354,-419,5129,5953,-4380,-5009,0-90,119,-15,8025,1050,660,-5990,-2272,-6760,1440,3354,-419,5129,5953,-4380,-5009,033,53,-1008,2341,-5814,4790,-4894,-3397,3592,-4746,6386,-1626,-280,-4659,-1381,7614,033,53,-1008,2341,-5814,4790,-4894,-3397,3592,-4746,6386,-1626,-280,-4659,-1381,7614,0-78,-52,-601,-5802,3350,-1426,1268,-5805,7292,-3796,114,3976,-4602,1611,-454,324,0-78,-52,-601,-5802,3350,-1426,1268,-5805,7292,-3796,114,3976,-4602,1611,-454,324,038,34,7165,-1916,-3725,5850,-2225,-4300,6487,6676,8113,1256,4497,-5201,-5816,246,038,34,7165,-1916,-3725,5850,-2225,-4300,6487,6676,8113,1256,4497,-5201,-5816,246,0-11,107,-2837,-726,5520,-8175,5089,726,-1339,-1180,3140,4696,6269,-4052,2789,-5678,0-11,107,-2837,-726,5520,-8175,5089,726,-1339,-1180,3140,4696,6269,-4052,2789,-5678,094,-37,1279,-1547,5975,-2715,2304,-4005,-1942,-2796,-797,1278,-7698,-1333,710,7697,094,-37,1279,-1547,5975,-2715,2304,-4005,-1942,-2796,-797,1278,-7698,-1333,710,7697,0-95,77,6996,717,3310,-6706,2688,-7853,-3585,-7193,-7838,2954,3874,-1156,8026,-3823,0-95,77,6996,717,3310,-6706,2688,-7853,-3585,-7193,-7838,2954,3874,-1156,8026,-3823,011,47,4648,4818,-4403,-6919,210,-5928,2638,5496,2813,-5769,4400,5979,-7366,-2533,011,47,4648,4818,-4403,-6919,210,-5928,2638,5496,2813,-5769,4400,5979,-7366,-2533,0-5,23,8184,6387,3680,6491,3858,-6564,-5316,-114,6673,2362,8036,3561,-3602,3269,0-5,23,8184,6387,3680,6491,3858,-6564,-5316,-114,6673,2362,8036,3561,-3602,3269,0-74,-21,7383,3168,-6052,8170,-4389,4071,4682,-6557,-1701,2570,501,4039,4668,-3507,0146,-40,-2749,-6052,6972,-2630,-3471,3652,-1497,3006,344,6482,7862,5176,-3880,-7440,1146,-40,-2749,-6052,6972,-2630,-3471,3652,-1497,3006,344,6482,7862,5176,-3880,-7440,189,-49,-2691,1581,6008,1101,6881,3578,-5980,1763,1235,-4114,5,-4933,1960,-7933,189,-49,-2691,1581,6008,1101,6881,3578,-5980,1763,1235,-4114,5,-4933,1960,-7933,197,71,-2691,5002,6022,1378,4681,-7006,-1389,7553,6528,6412,-5711,3686,1506,5504,197,71,-2691,5002,6022,1378,4681,-7006,-1389,7553,6528,6412,-5711,3686,1506,5504,1119,36,-5403,1646,659,165,-5536,5323,504,-2590,4208,3689,-4367,3088,-5848,-7601,1119,36,-5403,1646,659,165,-5536,5323,504,-2590,4208,3689,-4367,3088,-5848,-7601,1-17,-7,3873,263,7083,3779,1908,-4247,-1348,2865,-4169,2948,7533,8027,-1235,-911,1-17,-7,3873,263,7083,3779,1908,-4247,-1348,2865,-4169,2948,7533,8027,-1235,-911,1-86,-24,-7480,-7241,2410,-5896,-2016,8001,6196,-3036,2096,-5122,7023,1652,3454,3202,1-86,-24,-7480,-7241,2410,-5896,-2016,8001,6196,-3036,2096,-5122,7023,1652,3454,3202,1-70,78,-3734,-1852,-2053,8071,3117,7047,-3692,197,1535,-4307,-2229,-1588,-5146,6805,1-70,78,-3734,-1852,-2053,8071,3117,7047,-3692,197,1535,-4307,-2229,-1588,-5146,6805,138,-8,1198,-1072,5889,2196,-543,-471,1470,-2759,-7356,8174,-3747,-236,3051,4998,138,-8,1198,-1072,5889,2196,-543,-471,1470,-2759,-7356,8174,-3747,-236,3051,4998,1-83,97,6126,232,-4850,8170,-7472,6876,5327,2307,-3481,-6785,-587,7968,6039,4186,1-83,97,6126,232,-4850,8170,-7472,6876,5327,2307,-3481,-6785,-587,7968,6039,4186,114,-15,-2177,-1933,-31,-5043,3422,2804,4968,7761,6604,3731,1600,-4808,-6052,5369,114,-15,-2177,-1933,-31,-5043,3422,2804,4968,7761,6604,3731,1600,-4808,-6052,5369,1129,31,-4374,-5738,121,1511,5008,2640,-4564,2750,7171,2556,5409,-5085,7627,6175,1129,31,-4374,-5738,121,1511,5008,2640,-4564,2750,7171,2556,5409,-5085,7627,6175,1-52,49,-4734,-7937,-2948,1865,4491,-2502,5267,-2416,8051,-2243,-3917,7468,-4337,-4166,1-52,49,-4734,-7937,-2948,1865,4491,-2502,5267,-2416,8051,-2243,-3917,7468,-4337,-4166,1-92,-92,3500,5049,-5129,3142,-6628,-6865,5187,-5743,-3993,6870,-4789,6511,-4228,1214,1-92,-92,3500,5049,-5129,3142,-6628,-6865,5187,-5743,-3993,6870,-4789,6511,-4228,1214,154,135,-413,-756,-2981,3441,5779,-4190,-1746,-2127,-3146,-3145,-6491,4281,-1004,372,154,135,-413,-756,-2981,3441,5779,-4190,-1746,-2127,-3146,-3145,-6491,4281,-1004,372,1-27,121,-4988,6383,1029,1064,-2094,1337,-3733,-1028,-2878,-374,-3446,7256,-7688,-3215,1-27,121,-4988,6383,1029,1064,-2094,1337,-3733,-1028,-2878,-374,-3446,7256,-7688,-3215,1-58,55,-6710,-5956,-7194,3101,-6681,6283,-4459,-1800,3433,6720,-1393,-3384,4087,3453,1-58,55,-6710,-5956,-7194,3101,-6681,6283,-4459,-1800,3433,6720,-1393,-3384,4087,3453,1144,-93,-1360,8002,4766,-5717,-6527,-1271,3461,6350,1772,1411,4802,-5317,247,-1903,1144,-93,-1360,8002,4766,-5717,-6527,-1271,3461,6350,1772,1411,4802,-5317,247,-1903,1135,14,-3943,2244,-5247,-7604,-4246,3346,6146,-1096,2036,785,3034,4853,-7220,-4261,1135,14,-3943,2244,-5247,-7604,-4246,3346,6146,-1096,2036,785,3034,4853,-7220,-4261,1139,137,-7462,-5913,-6342,657,8144,4578,-5195,-5742,2937,3202,-6841,-5606,5926,-4033,1139,137,-7462,-5913,-6342,657,8144,4578,-5195,-5742,2937,3202,-6841,-5606,5926,-4033,1-12,-43,-6,-1996,645,-2580,567,-5048,-4406,-850,-1578,746,1391,3875,3973,-7904,1-12,-43,-6,-1996,645,-2580,567,-5048,-4406,-850,-1578,746,1391,3875,3973,-7904,1-44,-2,-5068,6615,5598,4720,6314,2114,4947,-2254,-3122,175,-7021,6799,-4270,6785,1-44,-2,-5068,6615,5598,4720,6314,2114,4947,-2254,-3122,175,-7021,6799,-4270,6785,1-6,-49,3789,-4483,7338,1835,-2468,5251,2727,-7058,-5709,7743,-436,-8179,-1138,-4931,1-6,-49,3789,-4483,7338,1835,-2468,5251,2727,-7058,-5709,7743,-436,-8179,-1138,-4931,1102,132,4457,4786,5090,2896,-545,3068,-3713,-1273,185,722,-7804,4820,5325,-2238,1102,132,4457,4786,5090,2896,-545,3068,-3713,-1273,185,722,-7804,4820,5325,-2238,114,148,-6133,3217,4769,303,3134,-7267,0,-7990,-843,-7203,-7056,5111,-6721,5017,114,148,-6133,3217,4769,303,3134,-7267,0,-7990,-843,-7203,-7056,5111,-6721,5017,1140,138,2443,-2581,-4506,-5707,5618,7501,-461,5103,-6193,-3243,-3876,-4223,3437,-7311,1140,138,2443,-2581,-4506,-5707,5618,7501,-461,5103,-6193,-3243,-3876,-4223,3437,-7311,1-74,-32,-4156,-6650,-362,-2396,6324,-5602,420,6768,-6617,5565,6960,-3817,-1332,8083,1-74,-32,-4156,-6650,-362,-2396,6324,-5602,420,6768,-6617,5565,6960,-3817,-1332,8083,137,-106,-8117,-2887,-3701,-5550,526,2959,-3820,-6102,1504,-5769,7303,-4861,-3754,-7718,137,-106,-8117,-2887,-3701,-5550,526,2959,-3820,-6102,1504,-5769,7303,-4861,-3754,-7718,199,62,802,-2845,-2524,5335,-5159,-6297,1397,-992,-1619,-2023,1778,205,-2153,-3919,199,62,802,-2845,-2524,5335,-5159,-6297,1397,-992,-1619,-2023,1778,205,-2153,-3919,1133,48,-7321,-7606,-6780,3638,3497,-6690,-2622,8102,4137,-2596,-6119,2559,2637,-1217,1133,48,-7321,-7606,-6780,3638,3497,-6690,-2622,8102,4137,-2596,-6119,2559,2637,-1217,1127,-41,-7744,6263,381,-3198,-1235,-2986,3234,-2938,3197,6787,-27,-96,-4343,1063,1127,-41,-7744,6263,381,-3198,-1235,-2986,3234,-2938,3197,6787,-27,-96,-4343,1063,1109,84,-6722,-1444,-4672,3447,4930,8133,3875,-3405,-5564,-1993,3226,572,-3639,3951,1109,84,-6722,-1444,-4672,3447,4930,8133,3875,-3405,-5564,-1993,3226,572,-3639,3951,177,125,-2849,-5213,-4812,-3299,3835,7431,5815,407,-5027,-5832,4035,-937,7670,-2403,177,125,-2849,-5213,-4812,-3299,3835,7431,5815,407,-5027,-5832,4035,-937,7670,-2403,131,-4,5879,-927,-1570,-798,-1655,-7334,-3564,1634,-6460,482,7585,6508,2309,-7638,131,-4,5879,-927,-1570,-798,-1655,-7334,-3564,1634,-6460,482,7585,6508,2309,-7638,1131,107,6621,3614,-754,-7980,5794,6555,4816,897,-4911,7968,1842,-6326,7745,2865,1131,107,6621,3614,-754,-7980,5794,6555,4816,897,-4911,7968,1842,-6326,7745,2865,125,100,-943,1251,2348,2804,-4649,735,-8126,-4863,-7825,2878,-3843,6117,1154,-133,125,100,-943,1251,2348,2804,-4649,735,-8126,-4863,-7825,2878,-3843,6117,1154,-133,155,15,5756,-483,7741,-5048,-1995,4231,4753,3029,-4076,-4088,6042,-264,6432,7831,155,15,5756,-483,7741,-5048,-1995,4231,4753,3029,-4076,-4088,6042,-264,6432,7831,1-91,31,-7388,2393,6098,-1678,8023,6230,2992,-3634,-6845,6134,2526,-1415,7126,-2535,1-91,31,-7388,2393,6098,-1678,8023,6230,2992,-3634,-6845,6134,2526,-1415,7126,-2535,1-38,139,2684,1983,-2764,-5022,-6312,162,5238,4483,2891,1981,-6789,2445,7088,1402,1-38,139,2684,1983,-2764,-5022,-6312,162,5238,4483,2891,1981,-6789,2445,7088,1402,131,14,-1422,-1224,4978,-7757,4860,2166,3787,7584,-6196,2112,-3465,-6248,-5685,7179,131,14,-1422,-1224,4978,-7757,4860,2166,3787,7584,-6196,2112,-3465,-6248,-5685,7179,1129,11,-4854,6535,-615,-3203,-5311,4479,7853,260,3487,6143,4911,6730,-6154,6442,1129,11,-4854,6535,-615,-3203,-5311,4479,7853,260,3487,6143,4911,6730,-6154,6442,161,16,-2267,6231,-3789,-6869,-1870,596,-6172,3730,-1446,3474,-6815,-4867,-577,1486,161,16,-2267,6231,-3789,-6869,-1870,596,-6172,3730,-1446,3474,-6815,-4867,-577,1486,1-43,23,5360,2246,5579,6580,3912,2215,1952,7726,6645,-798,-5721,-4792,1045,-2688,1-43,23,5360,2246,5579,6580,3912,2215,1952,7726,6645,-798,-5721,-4792,1045,-2688,180,-16,5684,5500,1328,-4073,1128,2884,-136,-1683,-6547,4341,-7360,4519,2957,-4803,180,-16,5684,5500,1328,-4073,1128,2884,-136,-1683,-6547,4341,-7360,4519,2957,-4803,196,74,-3991,-3005,-5721,637,-1211,-466,5682,433,-4864,6419,-2928,-7697,-1518,4260,196,74,-3991,-3005,-5721,637,-1211,-466,5682,433,-4864,6419,-2928,-7697,-1518,4260,1-19,64,-3248,6656,1783,1624,-6804,-3487,-4985,-3526,-2025,2651,3992,45,-6116,-2558,1-19,64,-3248,6656,1783,1624,-6804,-3487,-4985,-3526,-2025,2651,3992,45,-6116,-2558,1-9,35,169,-3499,5610,-8164,6707,-3744,-8183,4825,5663,-2934,5945,-7208,-5201,-8077,1-9,35,169,-3499,5610,-8164,6707,-3744,-8183,4825,5663,-2934,5945,-7208,-5201,-8077,1-17,-58,2474,3750,-3637,-5522,-7550,-2916,-2932,-1027,-3570,-632,-4148,-5982,18,2593,1-17,-58,2474,3750,-3637,-5522,-7550,-2916,-2932,-1027,-3570,-632,-4148,-5982,18,2593,182,-12,-4166,-3454,855,-4039,-2095,1814,7129,-7619,2040,-4887,4222,-5379,-2524,-330,182,-12,-4166,-3454,855,-4039,-2095,1814,7129,-7619,2040,-4887,4222,-5379,-2524,-330,1130,91,-8108,-7943,-1086,-1153,-4728,-7984,5222,-5965,-4953,1258,-3644,1752,5480,4451,1130,91,-8108,-7943,-1086,-1153,-4728,-7984,5222,-5965,-4953,1258,-3644,1752,5480,4451,1-89,91,3818,7519,-8096,2603,782,3969,876,6478,4356,6517,-1016,1866,6560,7492,1-89,91,3818,7519,-8096,2603,782,3969,876,6478,4356,6517,-1016,1866,6560,7492,1-68,9,7147,-4863,6352,1253,5829,3240,-1606,1417,-5930,-1403,3436,5557,862,-1123,1-68,9,7147,-4863,6352,1253,5829,3240,-1606,1417,-5930,-1403,3436,5557,862,-1123,174,143,-6770,-4420,-374,-3036,-2188,4282,7088,5536,7054,-7226,-1318,7578,7884,2826,174,143,-6770,-4420,-374,-3036,-2188,4282,7088,5536,7054,-7226,-1318,7578,7884,2826,1125,127,1101,-5248,-30,7347,-4432,5133,5220,-4077,-5439,3141,2399,-4307,5077,-3018,1125,127,1101,-5248,-30,7347,-4432,5133,5220,-4077,-5439,3141,2399,-4307,5077,-3018,1-26,101,-1507,-6787,2694,1573,1845,-1438,910,-182,-1864,-7534,-1078,-649,-2809,4953,1-26,101,-1507,-6787,2694,1573,1845,-1438,910,-182,-1864,-7534,-1078,-649,-2809,4953,1-13,131,7078,-5113,5743,4536,-1050,4890,4856,6766,-966,7166,3229,-294,-3980,3783,1-13,131,7078,-5113,5743,4536,-1050,4890,4856,6766,-966,7166,3229,-294,-3980,3783,165,88,-471,4266,-3810,6083,304,5042,6607,-595,7218,-1678,-3638,7092,7491,6586,1-84,56,4742,-2345,-1473,5758,-4883,710,-5788,-4484,2509,-4535,7489,-5150,-2818,-932,0-84,56,4742,-2345,-1473,5758,-4883,710,-5788,-4484,2509,-4535,7489,-5150,-2818,-932,0-37,-101,1052,-4369,-7975,594,-4377,7575,5370,3041,1038,3760,-2560,6305,-3955,4385,0-37,-101,1052,-4369,-7975,594,-4377,7575,5370,3041,1038,3760,-2560,6305,-3955,4385,0-34,22,4031,-288,1883,4983,-1029,-4096,4670,2575,-2461,-4108,-4657,1288,7937,-1057,0-34,22,4031,-288,1883,4983,-1029,-4096,4670,2575,-2461,-4108,-4657,1288,7937,-1057,0146,57,2284,1031,-4387,-2261,7112,7982,-1173,-534,8106,2091,3117,-3632,-5905,-6351,0146,57,2284,1031,-4387,-2261,7112,7982,-1173,-534,8106,2091,3117,-3632,-5905,-6351,0105,-2,7024,1949,4097,7745,4283,-3324,1881,6370,-5999,-6080,-3969,1089,5193,-3979,0105,-2,7024,1949,4097,7745,4283,-3324,1881,6370,-5999,-6080,-3969,1089,5193,-3979,0109,-103,-1917,5833,-69,-6930,1705,-4923,4425,-5700,-3955,-2806,4675,-1074,7248,5702,0109,-103,-1917,5833,-69,-6930,1705,-4923,4425,-5700,-3955,-2806,4675,-1074,7248,5702,0-8,141,-2739,-7999,-672,7755,519,-8045,1070,-504,-2032,6963,4568,-1625,-6012,-8025,0-8,141,-2739,-7999,-672,7755,519,-8045,1070,-504,-2032,6963,4568,-1625,-6012,-8025,0136,55,5903,-7074,-2892,3619,-5483,-255,-1081,-7149,1176,-1462,6079,-6198,-1675,-6187,0136,55,5903,-7074,-2892,3619,-5483,-255,-1081,-7149,1176,-1462,6079,-6198,-1675,-6187,0-68,16,7254,-2414,-1330,2143,4724,-4929,3136,-4801,-3395,-7454,-6037,4795,-6246,-7437,0-68,16,7254,-2414,-1330,2143,4724,-4929,3136,-4801,-3395,-7454,-6037,4795,-6246,-7437,0147,111,8027,-8053,-7653,-1941,-6345,2058,2432,-557,-3669,2625,-4160,4065,-6913,212,0147,111,8027,-8053,-7653,-1941,-6345,2058,2432,-557,-3669,2625,-4160,4065,-6913,212,0113,117,-4066,2013,2155,7962,1528,-7845,3970,8013,-3542,-989,-2831,-2375,6717,-1948,0113,117,-4066,2013,2155,7962,1528,-7845,3970,8013,-3542,-989,-2831,-2375,6717,-1948,069,74,-4797,-7839,-6110,1059,4535,2665,-7956,-4687,1596,813,-3769,3311,-3770,5930,069,74,-4797,-7839,-6110,1059,4535,2665,-7956,-4687,1596,813,-3769,3311,-3770,5930,098,-9,1170,-4613,-7840,2477,-5184,-1605,-2918,-4293,-5474,1852,3077,6392,-2217,5031,098,-9,1170,-4613,-7840,2477,-5184,-1605,-2918,-4293,-5474,1852,3077,6392,-2217,5031,0-84,-21,853,-532,256,1825,-6273,-4138,1528,4199,-2139,-7977,5502,4246,-848,-6839,0-84,-21,853,-532,256,1825,-6273,-4138,1528,4199,-2139,-7977,5502,4246,-848,-6839,0-58,19,-2032,-246,5686,-2081,5070,-672,-4651,5547,3236,-3040,-689,-2445,-3788,1718,0-58,19,-2032,-246,5686,-2081,5070,-672,-4651,5547,3236,-3040,-689,-2445,-3788,1718,047,-5,6859,2656,-7917,7454,4089,3724,6012,-6922,-3163,989,-4284,-8127,8040,-4279,047,-5,6859,2656,-7917,7454,4089,3724,6012,-6922,-3163,989,-4284,-8127,8040,-4279,0-44,105,3567,-5892,-218,6595,-4893,-2856,-6068,-7596,-2186,-5419,-454,-6688,-7333,-13,0-44,105,3567,-5892,-218,6595,-4893,-2856,-6068,-7596,-2186,-5419,-454,-6688,-7333,-13,0-74,-21,-4205,5273,-7100,4883,-3953,-6105,-7815,-6559,-2042,-8154,-7543,-3036,-5635,-582,0-74,-21,-4205,5273,-7100,4883,-3953,-6105,-7815,-6559,-2042,-8154,-7543,-3036,-5635,-582,0-2,-4,-2480,1898,319,-6619,-3716,363,7710,-5792,6957,1135,1230,896,3368,-6639,0-2,-4,-2480,1898,319,-6619,-3716,363,7710,-5792,6957,1135,1230,896,3368,-6639,0-9,33,-6289,-6806,7818,-1725,-3076,667,-5764,7258,4902,5392,-2976,2205,2218,-5774,0-9,33,-6289,-6806,7818,-1725,-3076,667,-5764,7258,4902,5392,-2976,2205,2218,-5774,0-29,-72,719,6479,5034,-4589,-7282,-6433,2587,182,-946,5488,1123,6715,1349,5908,0-29,-72,719,6479,5034,-4589,-7282,-6433,2587,182,-946,5488,1123,6715,1349,5908,025,72,2622,1287,-2047,35,-5729,-2919,-6384,816,-2097,6769,5533,2332,4427,-380,025,72,2622,1287,-2047,35,-5729,-2919,-6384,816,-2097,6769,5533,2332,4427,-380,059,-91,-35,6590,4300,4343,-5572,-4062,-6329,7588,-6465,-4081,2227,5639,1040,6711,059,-91,-35,6590,4300,4343,-5572,-4062,-6329,7588,-6465,-4081,2227,5639,1040,6711,048,61,4028,3080,6413,6281,-3273,-1756,2414,6514,594,-6475,-829,-2885,-6101,1495,048,61,4028,3080,6413,6281,-3273,-1756,2414,6514,594,-6475,-829,-2885,-6101,1495,053,-36,-3801,6309,5030,305,-2692,-5027,-717,6158,7868,2320,-7805,5633,-4382,-6575,053,-36,-3801,6309,5030,305,-2692,-5027,-717,6158,7868,2320,-7805,5633,-4382,-6575,0-24,110,-5944,-7384,85,1362,4180,4015,-1996,-2103,-2500,5039,829,2412,-395,-6945,0-24,110,-5944,-7384,85,1362,4180,4015,-1996,-2103,-2500,5039,829,2412,-395,-6945,0-32,-14,1655,4218,-2001,-4313,5984,659,4906,-5631,1884,5433,102,4091,7794,-3707,0-32,-14,1655,4218,-2001,-4313,5984,659,4906,-5631,1884,5433,102,4091,7794,-3707,097,-54,-7585,-493,4025,5645,-5702,-8092,4439,3414,-7769,-6652,-5394,-5758,1887,-6473,097,-54,-7585,-493,4025,5645,-5702,-8092,4439,3414,-7769,-6652,-5394,-5758,1887,-6473,036,-52,7114,2379,7284,-5050,-2356,-7630,1737,-5763,3708,-8134,-4961,-2119,-4463,8138,036,-52,7114,2379,7284,-5050,-2356,-7630,1737,-5763,3708,-8134,-4961,-2119,-4463,8138,079,118,-7201,2126,7522,5606,2684,3571,-206,8070,3678,-6686,7908,-4516,3247,-3876,079,118,-7201,2126,7522,5606,2684,3571,-206,8070,3678,-6686,7908,-4516,3247,-3876,0-78,102,-4947,-2286,6219,-5488,5532,927,-6537,6084,4411,-234,-5172,-2633,2343,7696,0-78,102,-4947,-2286,6219,-5488,5532,927,-6537,6084,4411,-234,-5172,-2633,2343,7696,085,-29,-6909,1604,2194,-2931,-7342,-5821,-3950,1604,-505,-4356,-7112,-6573,-5844,-8141,085,-29,-6909,1604,2194,-2931,-7342,-5821,-3950,1604,-505,-4356,-7112,-6573,-5844,-8141,0-18,127,1425,7490,4882,-3396,-408,524,7743,306,3552,-6673,6512,-4035,-2236,-3515,0-18,127,1425,7490,4882,-3396,-408,524,7743,306,3552,-6673,6512,-4035,-2236,-3515,0113,122,6531,-5102,-1525,1879,5202,5615,-5914,-5624,5513,4169,-5461,-6536,-3242,-5544,0113,122,6531,-5102,-1525,1879,5202,5615,-5914,-5624,5513,4169,-5461,-6536,-3242,-5544,0-26,119,-5979,4802,1067,4625,3858,2086,-6833,2364,2556,3494,3652,558,1101,4796,0-26,119,-5979,4802,1067,4625,3858,2086,-6833,2364,2556,3494,3652,558,1101,4796,0-37,102,-2438,-2391,5198,-364,-3875,-2390,-4928,5656,-3532,-6324,6516,-3242,6813,-962,0-37,102,-2438,-2391,5198,-364,-3875,-2390,-4928,5656,-3532,-6324,6516,-3242,6813,-962,0142,-44,5208,3913,-2842,-2595,-2036,8130,6256,5447,-6796,-7725,-4480,-312,-4361,-5202,0142,-44,5208,3913,-2842,-2595,-2036,8130,6256,5447,-6796,-7725,-4480,-312,-4361,-5202,0110,-29,-860,-4995,1065,1295,-115,-3402,1224,-4197,-1750,7139,6987,6011,-336,1632,0110,-29,-860,-4995,1065,1295,-115,-3402,1224,-4197,-1750,7139,6987,6011,-336,1632,0118,-89,241,-7338,-4788,3345,5474,3746,-6318,2930,-6257,7491,6275,4191,-3115,2920,0118,-89,241,-7338,-4788,3345,5474,3746,-6318,2930,-6257,7491,6275,4191,-3115,2920,012,-10,1510,1417,7766,-1526,-1510,780,-521,1389,-1511,-5796,-1436,-3968,4825,3362,012,-10,1510,1417,7766,-1526,-1510,780,-521,1389,-1511,-5796,-1436,-3968,4825,3362,092,22,179,1297,-4038,-187,-159,-3917,-2880,7257,55,3852,3337,5843,2542,284,092,22,179,1297,-4038,-187,-159,-3917,-2880,7257,55,3852,3337,5843,2542,284,0-75,108,8146,-5531,-403,2112,7119,7268,-5174,-1745,589,-1485,-1102,1281,-5706,7666,0-75,108,8146,-5531,-403,2112,7119,7268,-5174,-1745,589,-1485,-1102,1281,-5706,7666,064,103,2574,104,-2505,-5735,-3733,5242,4593,1625,-516,6881,8007,2753,-4332,7633,064,103,2574,104,-2505,-5735,-3733,5242,4593,1625,-516,6881,8007,2753,-4332,7633,013,-17,-3854,-122,-6142,3279,-3363,4331,585,-4270,-7361,-5909,3644,-2879,-7670,-7207,013,-17,-3854,-122,-6142,3279,-3363,4331,585,-4270,-7361,-5909,3644,-2879,-7670,-7207,042,-75,-2105,5816,4823,-5396,4130,-976,5337,-5835,-6944,-4495,-409,1567,-6913,342,042,-75,-2105,5816,4823,-5396,4130,-976,5337,-5835,-6944,-4495,-409,1567,-6913,342,053,111,-2643,6670,882,1343,6341,5569,-216,2645,7225,3862,-6425,-5816,5454,-2700,053,111,-2643,6670,882,1343,6341,5569,-216,2645,7225,3862,-6425,-5816,5454,-2700,0-38,79,-2903,1287,347,4054,-6460,1707,-6356,-6060,4875,6701,-367,3130,-1066,3165,0-38,79,-2903,1287,347,4054,-6460,1707,-6356,-6060,4875,6701,-367,3130,-1066,3165,06,134,-6864,5693,5237,-4923,-2593,-6035,6591,3132,-4591,-1122,-1054,6516,6356,936,06,134,-6864,5693,5237,-4923,-2593,-6035,6591,3132,-4591,-1122,-1054,6516,6356,936,0-14,42,3173,5858,-3619,4105,-1220,-7990,-7767,3356,-7334,942,-6708,3069,-4519,4869,0-14,42,3173,5858,-3619,4105,-1220,-7990,-7767,3356,-7334,942,-6708,3069,-4519,4869,0106,26,-2837,-4257,521,8064,2817,-3778,-6900,2627,2091,6018,-1432,-782,3364,160,0106,26,-2837,-4257,521,8064,2817,-3778,-6900,2627,2091,6018,-1432,-782,3364,160,0-2,78,3405,-2792,5474,8176,-1208,-6481,-2872,-7156,3608,3279,2602,-2185,-3296,-290,0-2,78,3405,-2792,5474,8176,-1208,-6481,-2872,-7156,3608,3279,2602,-2185,-3296,-290,093,29,-213,2144,7674,3533,4433,2545,-5253,1248,6627,6862,2387,-4183,-2118,3062,093,29,-213,2144,7674,3533,4433,2545,-5253,1248,6627,6862,2387,-4183,-2118,3062,0136,120,1092,1761,316,3435,-547,-6406,3926,-1920,792,6737,-6597,6428,5967,7402,0136,120,1092,1761,316,3435,-547,-6406,3926,-1920,792,6737,-6597,6428,5967,7402,0136,-29,3141,2715,-688,3897,2831,-2400,3778,485,-1937,-1869,-5510,-1363,-4583,-6779,0136,-29,3141,2715,-688,3897,2831,-2400,3778,485,-1937,-1869,-5510,-1363,-4583,-6779,095,33,1128,3569,7239,6245,-4745,1813,770,4846,4887,-1332,-5978,-7611,-2464,4922,095,33,1128,3569,7239,6245,-4745,1813,770,4846,4887,-1332,-5978,-7611,-2464,4922,0-90,119,-3742,-6889,-2916,219,2717,-1889,-3240,-4229,1916,-4387,4104,-6656,6915,2838,0-90,119,-3742,-6889,-2916,219,2717,-1889,-3240,-4229,1916,-4387,4104,-6656,6915,2838,0-18,93,1238,-67,-3036,-1833,6565,1759,-7535,6255,4220,-981,-7975,3005,5652,-1336,0-18,93,1238,-67,-3036,-1833,6565,1759,-7535,6255,4220,-981,-7975,3005,5652,-1336,0-4,3,-7965,3912,2123,5920,4422,2746,-6005,-8115,1195,1787,4983,1400,7418,431,0-4,3,-7965,3912,2123,5920,4422,2746,-6005,-8115,1195,1787,4983,1400,7418,431,0-21,-100,-6369,4795,-4347,1268,-2532,-5791,-1545,-1917,-5620,541,-7526,-6349,6000,-3783,0-21,-100,-6369,4795,-4347,1268,-2532,-5791,-1545,-1917,-5620,541,-7526,-6349,6000,-3783,054,149,-4280,3018,-7583,-3180,5302,-6925,2493,-285,560,7336,-2036,5414,620,-1509,054,149,-4280,3018,-7583,-3180,5302,-6925,2493,-285,560,7336,-2036,5414,620,-1509,0-16,137,7354,6369,1136,5122,-8086,4160,-4194,-6,6518,-4665,7294,345,-4287,1420,0-16,137,7354,6369,1136,5122,-8086,4160,-4194,-6,6518,-4665,7294,345,-4287,1420,0-6,1,2876,3564,4327,2586,-2209,1042,331,5482,-1170,-4600,1263,-7174,433,-2063,0-6,1,2876,3564,4327,2586,-2209,1042,331,5482,-1170,-4600,1263,-7174,433,-2063,0129,-104,6981,3627,3414,-393,-3253,-3427,2423,-2591,5071,4647,-2134,5922,2115,6776,0129,-104,6981,3627,3414,-393,-3253,-3427,2423,-2591,5071,4647,-2134,5922,2115,6776,0-80,-47,4992,-5748,7617,1826,-1567,7674,-1030,-1835,-6944,-611,-2274,-2889,-2294,4064,0-80,-47,4992,-5748,7617,1826,-1567,7674,-1030,-1835,-6944,-611,-2274,-2889,-2294,4064,040,-28,6166,-4520,-3056,-7363,2288,1947,-7676,8162,421,-504,-777,983,-877,5996,040,-28,6166,-4520,-3056,-7363,2288,1947,-7676,8162,421,-504,-777,983,-877,5996,0106,74,-2517,-2942,-1780,-4248,-154,1439,-2181,4782,2390,5823,-8082,13,7483,-719,0106,74,-2517,-2942,-1780,-4248,-154,1439,-2181,4782,2390,5823,-8082,13,7483,-719,02,-67,-7860,2203,4267,4859,-2602,-1586,468,7032,7190,-3908,4835,7726,2556,160,02,-67,-7860,2203,4267,4859,-2602,-1586,468,7032,7190,-3908,4835,7726,2556,160,099,38,-6705,1572,4155,3356,-6200,-2602,-3369,2806,6768,-3751,7723,1127,3726,-6014,099,38,-6705,1572,4155,3356,-6200,-2602,-3369,2806,6768,-3751,7723,1127,3726,-6014,0-40,82,4915,914,-2720,4280,-385,4567,-6428,4516,8174,5584,-7791,8078,604,3946,0-40,82,4915,914,-2720,4280,-385,4567,-6428,4516,8174,5584,-7791,8078,604,3946,052,69,-1986,-5393,-7509,-5855,6022,-5128,5168,-2866,-8002,-3136,5066,2313,5516,-7894,052,69,-1986,-5393,-7509,-5855,6022,-5128,5168,-2866,-8002,-3136,5066,2313,5516,-7894,0-63,-93,4609,-952,1854,6077,3418,-4942,5547,-6938,3680,1506,-5248,-2304,-277,2333,0-63,-93,4609,-952,1854,6077,3418,-4942,5547,-6938,3680,1506,-5248,-2304,-277,2333,0-14,-89,-7870,-485,2473,-5247,7649,-7668,5378,1294,-6659,1945,-6546,7319,4499,7230,0-14,-89,-7870,-485,2473,-5247,7649,-7668,5378,1294,-6659,1945,-6546,7319,4499,7230,0-38,84,7409,-3446,4160,59,-1476,5338,4255,-6375,759,-4874,1028,-6885,-3418,-1889,0-38,84,7409,-3446,4160,59,-1476,5338,4255,-6375,759,-4874,1028,-6885,-3418,-1889,067,83,4091,-6430,1012,1904,-945,4423,-7337,5077,-7498,3249,5392,4023,6533,-4997,067,83,4091,-6430,1012,1904,-945,4423,-7337,5077,-7498,3249,5392,4023,6533,-4997,089,36,-2581,-2496,7378,-5991,4989,-6519,4483,6638,4581,-5003,-5814,2171,-1034,-5873,089,36,-2581,-2496,7378,-5991,4989,-6519,4483,6638,4581,-5003,-5814,2171,-1034,-5873,0-56,-56,-4904,-4422,1728,2661,-341,6363,4208,-2509,6053,6636,939,-2729,7517,7488,0-56,-56,-4904,-4422,1728,2661,-341,6363,4208,-2509,6053,6636,939,-2729,7517,7488,013,-21,-8160,3299,6167,-2285,-4982,-3877,5853,2175,-1564,1346,-3986,5160,-3828,-5443,013,-21,-8160,3299,6167,-2285,-4982,-3877,5853,2175,-1564,1346,-3986,5160,-3828,-5443,0100,126,-3224,4657,3337,1973,5590,-922,-3665,-1246,600,3501,2646,882,8009,-2830,0100,126,-3224,4657,3337,1973,5590,-922,-3665,-1246,600,3501,2646,882,8009,-2830,0-35,43,-1406,3277,-2869,6832,-1715,-222,1932,-3328,-4386,7601,6580,-59,7154,-1115,0-35,43,-1406,3277,-2869,6832,-1715,-222,1932,-3328,-4386,7601,6580,-59,7154,-1115,08,-29,5304,6849,-5157,7988,-701,2393,-5559,-6669,1884,7612,3321,6160,-5734,6442,08,-29,5304,6849,-5157,7988,-701,2393,-5559,-6669,1884,7612,3321,6160,-5734,6442,0-46,94,2187,5206,-5322,987,7497,-816,-5986,260,2743,-2793,7899,6270,3915,8033,0117,-95,3398,-937,3994,5956,350,5798,2302,3923,-2842,-2647,-5828,-6013,-7693,-8135,1117,-95,3398,-937,3994,5956,350,5798,2302,3923,-2842,-2647,-5828,-6013,-7693,-8135,1-53,-24,4138,1679,-2334,-4995,-1547,3746,534,-5735,1113,5881,-4150,-6603,-1909,-398,1-53,-24,4138,1679,-2334,-4995,-1547,3746,534,-5735,1113,5881,-4150,-6603,-1909,-398,1-94,-24,3933,3266,-3907,-4943,2041,-3939,2172,-5770,-2684,5628,-7297,-259,-6616,646,1-94,-24,3933,3266,-3907,-4943,2041,-3939,2172,-5770,-2684,5628,-7297,-259,-6616,646,146,130,-7311,-4511,-5789,-5990,2352,-1619,3108,2089,-3024,6768,3715,6761,-5717,-5673,146,130,-7311,-4511,-5789,-5990,2352,-1619,3108,2089,-3024,6768,3715,6761,-5717,-5673,1-79,-79,6924,-1741,-6375,-4228,3616,-1516,4499,-1728,-6698,7028,-1585,2792,2175,-6219,1-79,-79,6924,-1741,-6375,-4228,3616,-1516,4499,-1728,-6698,7028,-1585,2792,2175,-6219,1128,22,501,-3485,-1931,-7710,-7130,3425,4186,-67,6647,-8094,4467,4122,-7545,-6319,1128,22,501,-3485,-1931,-7710,-7130,3425,4186,-67,6647,-8094,4467,4122,-7545,-6319,1-93,-82,-2484,516,7427,2853,-6421,-1803,1028,7915,5525,-5416,-5170,8169,-2935,-644,1-93,-82,-2484,516,7427,2853,-6421,-1803,1028,7915,5525,-5416,-5170,8169,-2935,-644,1-22,149,-3355,5682,-5490,1943,6084,936,4428,-4234,-2028,-636,7463,-677,-7748,-7782,1-22,149,-3355,5682,-5490,1943,6084,936,4428,-4234,-2028,-636,7463,-677,-7748,-7782,1-92,-67,7956,-8030,7446,7696,-2057,4529,2773,1315,-4291,3490,1322,-4121,7320,4245,1-92,-67,7956,-8030,7446,7696,-2057,4529,2773,1315,-4291,3490,1322,-4121,7320,4245,117,-29,-5908,-2753,7208,-5188,576,-3632,-5272,7236,7143,-3185,4309,-5446,-6920,6173,117,-29,-5908,-2753,7208,-5188,576,-3632,-5272,7236,7143,-3185,4309,-5446,-6920,6173,1-32,74,112,6871,-94,-5861,1776,-2579,2583,6165,8020,-1215,-4972,-3941,-2159,-317,1-32,74,112,6871,-94,-5861,1776,-2579,2583,6165,8020,-1215,-4972,-3941,-2159,-317,1-47,63,1113,2062,-5557,3096,-5799,-6663,-1178,-1261,6666,-798,-619,-1044,-7606,-7568,1-47,63,1113,2062,-5557,3096,-5799,-6663,-1178,-1261,6666,-798,-619,-1044,-7606,-7568,1-1,-39,-72,2230,4057,464,-5382,-5506,-5164,-360,1108,2013,-2966,2099,3491,-3755,1-1,-39,-72,2230,4057,464,-5382,-5506,-5164,-360,1108,2013,-2966,2099,3491,-3755,1-88,-100,-7410,3112,-2958,-1648,1048,2893,4117,1998,4858,-7884,-5111,-3011,7394,-1811,1-88,-100,-7410,3112,-2958,-1648,1048,2893,4117,1998,4858,-7884,-5111,-3011,7394,-1811,1102,113,-1602,-7556,-7342,6017,593,7621,-6907,-63,175,2879,-7557,5963,8148,-3527,1102,113,-1602,-7556,-7342,6017,593,7621,-6907,-63,175,2879,-7557,5963,8148,-3527,1-24,-91,-5858,7319,-2894,3383,-1386,-7966,483,8144,3694,7294,6939,5511,8082,7390,1-24,-91,-5858,7319,-2894,3383,-1386,-7966,483,8144,3694,7294,6939,5511,8082,7390,14,-65,3952,-8027,7361,-1310,1813,6807,8083,4392,-4510,6137,-2534,-2593,4904,4104,14,-65,3952,-8027,7361,-1310,1813,6807,8083,4392,-4510,6137,-2534,-2593,4904,4104,1145,-101,7461,-4328,-5640,-2674,1547,3145,-2153,3309,6366,-561,-4122,3081,4831,-4446,1145,-101,7461,-4328,-5640,-2674,1547,3145,-2153,3309,6366,-561,-4122,3081,4831,-4446,1150,-53,-2440,-5516,6947,-6222,7352,5781,7457,2267,1465,-3727,2234,-6634,-2320,7650,1150,-53,-2440,-5516,6947,-6222,7352,5781,7457,2267,1465,-3727,2234,-6634,-2320,7650,1109,129,7442,-5353,2643,-6765,-43,1347,-6848,-5413,2353,-8073,2398,-5712,-5256,-6451,1109,129,7442,-5353,2643,-6765,-43,1347,-6848,-5413,2353,-8073,2398,-5712,-5256,-6451,1147,-100,7219,5310,4451,-5453,1523,2945,-5747,6718,-2908,888,-1189,7831,-4595,-282,1147,-100,7219,5310,4451,-5453,1523,2945,-5747,6718,-2908,888,-1189,7831,-4595,-282,1-28,146,3248,-7391,-6737,-7641,1366,-1456,-113,-5215,-3083,202,-244,-3586,397,8045,1-28,146,3248,-7391,-6737,-7641,1366,-1456,-113,-5215,-3083,202,-244,-3586,397,8045,1-54,97,3019,-1787,7566,6339,4647,604,-233,4885,6831,6762,-793,-1549,-7608,-2776,1-54,97,3019,-1787,7566,6339,4647,604,-233,4885,6831,6762,-793,-1549,-7608,-2776,159,97,412,-1223,4679,4992,-2953,-928,3115,3606,-2629,-813,1905,5431,5639,-2681,159,97,412,-1223,4679,4992,-2953,-928,3115,3606,-2629,-813,1905,5431,5639,-2681,1-25,96,505,3234,5434,848,7320,2521,-614,6370,-7457,2505,-5219,-130,-303,3723,1-25,96,505,3234,5434,848,7320,2521,-614,6370,-7457,2505,-5219,-130,-303,3723,171,95,-3877,1490,-1239,7452,579,1337,-6955,-3770,7122,-4570,6432,228,-2488,3174,171,95,-3877,1490,-1239,7452,579,1337,-6955,-3770,7122,-4570,6432,228,-2488,3174,1-25,-8,-364,7816,3631,-6724,-7117,-1332,-2083,3702,3691,-4501,-6963,530,6081,-5008,1-25,-8,-364,7816,3631,-6724,-7117,-1332,-2083,3702,3691,-4501,-6963,530,6081,-5008,1-82,-47,8058,2876,3015,4887,-4655,2286,-2317,-7197,4538,-506,1959,3995,3508,1992,1-82,-47,8058,2876,3015,4887,-4655,2286,-2317,-7197,4538,-506,1959,3995,3508,1992,147,-87,-5062,-7442,-1596,393,-4143,-2989,-7022,-2656,-311,1722,-5807,4404,8040,7938,147,-87,-5062,-7442,-1596,393,-4143,-2989,-7022,-2656,-311,1722,-5807,4404,8040,7938,1-3,53,-3102,568,-2718,4876,1754,-1646,6780,-4812,-1798,3953,-7181,-2874,5077,-2764,1-3,53,-3102,568,-2718,4876,1754,-1646,6780,-4812,-1798,3953,-7181,-2874,5077,-2764,1-4,14,-5726,-4569,6412,4978,-6163,3976,5564,50,-3851,7530,2652,-147,1898,-1320,1-4,14,-5726,-4569,6412,4978,-6163,3976,5564,50,-3851,7530,2652,-147,1898,-1320,1-80,-9,3097,3705,-1989,1930,-1777,-5761,-2785,-2973,3286,7091,4691,-11,1060,-6167,1-80,-9,3097,3705,-1989,1930,-1777,-5761,-2785,-2973,3286,7091,4691,-11,1060,-6167,1-55,47,5934,5,-8024,-6877,6527,-7164,-5587,-4027,-5501,-4408,1453,-1587,-7100,-5593,1-55,47,5934,5,-8024,-6877,6527,-7164,-5587,-4027,-5501,-4408,1453,-1587,-7100,-5593,1-63,49,5845,8136,-7280,7111,462,-3048,6269,-2967,6652,-4005,7470,-290,-3651,7765,1-63,49,5845,8136,-7280,7111,462,-3048,6269,-2967,6652,-4005,7470,-290,-3651,7765,173,145,-1454,-2346,6743,-5721,-7455,-1616,3815,-6278,770,2067,5986,6105,-55,7610,173,145,-1454,-2346,6743,-5721,-7455,-1616,3815,-6278,770,2067,5986,6105,-55,7610,1-19,9,1762,-4077,-5066,414,-442,6309,-2862,3189,-3935,1525,7499,7173,5775,7338,1-19,9,1762,-4077,-5066,414,-442,6309,-2862,3189,-3935,1525,7499,7173,5775,7338,1-55,146,5106,-7427,-5032,6090,-5977,295,5303,3410,3734,-4481,7632,-2607,-848,5517,1-55,146,5106,-7427,-5032,6090,-5977,295,5303,3410,3734,-4481,7632,-2607,-848,5517,121,69,-6115,-3553,2900,-2480,-6374,293,-4495,1808,5193,3099,2770,7982,1345,-1661,121,69,-6115,-3553,2900,-2480,-6374,293,-4495,1808,5193,3099,2770,7982,1345,-1661,1-90,90,-3157,-3464,243,-4481,-4341,1455,-3157,1696,3139,-2212,-268,-355,-3735,5710,1-90,90,-3157,-3464,243,-4481,-4341,1455,-3157,1696,3139,-2212,-268,-355,-3735,5710,1-36,10,-5584,5632,7064,-1428,3185,6011,-6179,-2096,4741,-6769,4832,-6485,-3192,-629,1-36,10,-5584,5632,7064,-1428,3185,6011,-6179,-2096,4741,-6769,4832,-6485,-3192,-629,160,-20,-5190,-7354,6401,1406,648,-606,-3143,-6241,2851,-2867,1479,-3462,514,-2508,160,-20,-5190,-7354,6401,1406,648,-606,-3143,-6241,2851,-2867,1479,-3462,514,-2508,1-2,0,2603,-2688,1229,744,5296,-4785,-4270,900,7601,-4116,2693,-5201,3476,-6502,1-2,0,2603,-2688,1229,744,5296,-4785,-4270,900,7601,-4116,2693,-5201,3476,-6502,117,-41,-3850,-8016,-344,5636,3252,-3273,-2063,7959,6629,2070,2894,-7345,4440,5316,117,-41,-3850,-8016,-344,5636,3252,-3273,-2063,7959,6629,2070,2894,-7345,4440,5316,14,76,6220,2414,3958,-533,1549,-3254,2293,2945,633,7603,1492,-374,-7948,-5213,14,76,6220,2414,3958,-533,1549,-3254,2293,2945,633,7603,1492,-374,-7948,-5213,1-93,-42,1723,4018,-4481,5273,1384,-4921,-7598,-4688,205,7380,6092,650,-743,-4138,1-93,-42,1723,4018,-4481,5273,1384,-4921,-7598,-4688,205,7380,6092,650,-743,-4138,1-101,6,-4614,6464,6883,-2728,-1416,-5498,-7244,-555,-3893,-6318,-6090,5404,2457,6017,1-101,6,-4614,6464,6883,-2728,-1416,-5498,-7244,-555,-3893,-6318,-6090,5404,2457,6017,191,132,-2220,4185,-1556,5919,-3800,-2727,-6440,-3396,2923,-3858,3254,1168,577,6327,191,132,-2220,4185,-1556,5919,-3800,-2727,-6440,-3396,2923,-3858,3254,1168,577,6327,1-47,84,-3337,5265,4626,3464,-7943,-3278,5964,-2196,1429,-2337,4218,-440,-6698,-1068,1-47,84,-3337,5265,4626,3464,-7943,-3278,5964,-2196,1429,-2337,4218,-440,-6698,-1068,1140,47,-2538,7283,-4267,-2229,1995,6725,3851,-5612,-2982,7447,-3959,-4623,571,-461,1140,47,-2538,7283,-4267,-2229,1995,6725,3851,-5612,-2982,7447,-3959,-4623,571,-461,1-90,60,3233,-6050,-7926,4840,4969,7234,6049,-1596,-1971,-5603,-297,-5194,6946,-7351,1-90,60,3233,-6050,-7926,4840,4969,7234,6049,-1596,-1971,-5603,-297,-5194,6946,-7351,11,121,-180,-7719,-3968,5154,-304,-2635,-5120,7041,-4571,-4705,6269,6824,-3467,507,11,121,-180,-7719,-3968,5154,-304,-2635,-5120,7041,-4571,-4705,6269,6824,-3467,507,1-38,-44,1810,-6099,-1128,2972,6353,-1052,-2508,-2396,-4780,3225,6616,-3772,-6210,7468,1-38,-44,1810,-6099,-1128,2972,6353,-1052,-2508,-2396,-4780,3225,6616,-3772,-6210,7468,1-8,139,-5503,-1846,-6063,4281,6549,6569,7237,-7747,-1046,5384,-7071,-2171,-6721,8082,1-8,139,-5503,-1846,-6063,4281,6549,6569,7237,-7747,-1046,5384,-7071,-2171,-6721,8082,190,-2,1718,-3206,-5147,-4381,1323,-4270,1256,7979,2485,-6311,3019,-332,6533,-351,190,-2,1718,-3206,-5147,-4381,1323,-4270,1256,7979,2485,-6311,3019,-332,6533,-351,193,72,-6076,-5527,6600,6453,7562,-42,5540,1737,6111,-4475,-5424,147,-277,-2516,193,72,-6076,-5527,6600,6453,7562,-42,5540,1737,6111,-4475,-5424,147,-277,-2516,1-82,93,6692,5563,-4860,-4476,7268,-3487,3601,4775,-6892,7614,-6595,-4691,3598,-1439,1-82,93,6692,5563,-4860,-4476,7268,-3487,3601,4775,-6892,7614,-6595,-4691,3598,-1439,1-32,51,-5310,3563,-3420,-3200,-6188,-861,-7107,6788,-5728,-4562,-7598,4268,-4063,-6618,1-32,51,-5310,3563,-3420,-3200,-6188,-861,-7107,6788,-5728,-4562,-7598,4268,-4063,-6618,118,83,2529,5428,69,7607,-181,-3311,-1683,876,2336,4793,5666,498,-1813,-3088,118,83,2529,5428,69,7607,-181,-3311,-1683,876,2336,4793,5666,498,-1813,-3088,123,20,-6983,6063,-2521,7038,-5265,1440,-7752,209,-1853,1579,-2356,1117,2886,5914,123,20,-6983,6063,-2521,7038,-5265,1440,-7752,209,-1853,1579,-2356,1117,2886,5914,186,-13,-6655,3330,5889,-7319,4581,-7,7214,3759,701,-5713,-2720,-6944,4692,-7728,186,-13,-6655,3330,5889,-7319,4581,-7,7214,3759,701,-5713,-2720,-6944,4692,-7728,1140,32,-2469,-5102,7836,-6761,2609,-2236,-4616,1917,7869,-7226,7956,-4407,5754,7654,1140,32,-2469,-5102,7836,-6761,2609,-2236,-4616,1917,7869,-7226,7956,-4407,5754,7654,151,-53,-244,-4756,-2868,-4195,-4042,-3604,1777,-5822,6765,8190,-600,-7944,4083,5795,151,-53,-244,-4756,-2868,-4195,-4042,-3604,1777,-5822,6765,8190,-600,-7944,4083,5795,1-39,59,-3308,5725,4317,-80,302,-5917,5808,-6767,-3476,5866,5601,7706,-5968,2466,1-39,59,-3308,5725,4317,-80,302,-5917,5808,-6767,-3476,5866,5601,7706,-5968,2466,144,134,6279,2045,-3243,-1971,-3805,1217,-4096,551,-2387,3207,1853,7147,-3279,-4719,144,134,6279,2045,-3243,-1971,-3805,1217,-4096,551,-2387,3207,1853,7147,-3279,-4719,179,126,-159,2715,-5801,-1640,-1914,556,5246,4657,-1212,7537,3410,-6160,-7967,-7950,179,126,-159,2715,-5801,-1640,-1914,556,5246,4657,-1212,7537,3410,-6160,-7967,-7950,156,-31,1222,-6191,5625,1732,-1451,6830,-667,-653,2020,-8142,2283,1426,2427,-4597,156,-31,1222,-6191,5625,1732,-1451,6830,-667,-653,2020,-8142,2283,1426,2427,-4597,10,8,-1881,2894,-91,-1362,-7718,6556,4092,2872,-4877,606,3046,-6873,-1137,-2039,10,8,-1881,2894,-91,-1362,-7718,6556,4092,2872,-4877,606,3046,-6873,-1137,-2039,1-35,-59,-2778,299,8079,-4368,-1429,3868,-4030,-1545,4710,6109,-1278,-4571,3237,-7600,1